File: __exampleData/ML Plastics copy/top class a spectra/All Class A spectra/Class_A_X60_Y27_prob0.670.csv
# Class A Classified Spectrum
# Position: X=60, Y=27
# Classification Probability: 0.6700
# Data Type: processed
# Original Filename: Steno-CT-33_01_Y027_X060.txt
#
Wavenumber,Intensity
100.0,2.43142
117.043,8.11306
134.085,1.99332
151.128,1.90449
168.17,9.86548
185.213,4.29826
202.256,1.79841
219.298,9.80209
236.341,9.38812
253.383,11.9462
270.426,9.05471
287.469,10.3595
304.511,3.99478
321.554,2.36619
338.596,5.95645
355.639,4.71334
372.682,12.3771
389.724,7.12531
406.767,6.33162
423.81,6.10806
440.852,3.674
457.895,13.9379
474.937,9.16197
491.98,8.90824
509.023,10.9774
526.065,12.8907
543.108,4.27106
560.15,-0.640779
577.193,21.0946
594.236,9.97198
611.278,6.16574
628.321,10.6575
645.363,10.8741
662.406,6.03468
679.449,16.9752
696.491,18.833
713.534,12.3418
730.576,3.11819
747.619,3.23157
764.662,12.19
781.704,7.93936
798.747,13.001
815.789,14.0598
832.832,9.79922
849.875,5.37186
866.917,9.01771
883.96,14.8605
901.003,4.98311
918.045,3.2036
935.088,3.46763
952.13,11.0017
969.173,8.45815
986.216,6.75833
1003.26,2.39709
1020.3,7.22704
1037.34,11.8989
1054.39,13.5192
1071.43,15.0644
1088.47,7.66755
1105.51,16.1934
1122.56,-1.47151
1139.6,3.67101
1156.64,10.875
1173.68,4.61732
1190.73,13.5465
1207.77,6.86594
1224.81,7.87508
1241.85,17.0031
1258.9,12.0745
1275.94,12.0793
1292.98,6.06735
1310.03,17.973
1327.07,31.7192
1344.11,33.6317
1361.15,26.4671
1378.2,23.1403
1395.24,44.4035
1412.28,29.092
1429.32,31.4111
1446.37,35.8425
1463.41,44.5924
1480.45,44.4254
1497.49,50.0103
1514.54,35.1924
1531.58,62.7262
1548.62,57.2939
1565.66,77.6386
1582.71,65.8698
1599.75,58.7797
1616.79,70.7933
1633.83,66.8381
1650.88,65.4667
1667.92,61.4382
1684.96,59.447
1702.01,53.6744
1719.05,63.9938
1736.09,51.549
1753.13,39.9
1770.18,47.6025
1787.22,44.7529
1804.26,50.3481
1821.3,35.7211
1838.35,25.8978
1855.39,21.8941
1872.43,28.5539
1889.47,21.61
1906.52,6.86485
1923.56,23.0771
1940.6,6.18879
1957.64,7.60547
1974.69,4.05046
1991.73,1.04368
2008.77,-0.134036
2025.81,0.0
2042.86,0.0
2059.9,0.0
2076.94,0.0
2093.98,0.0
2111.03,0.0
2128.07,0.0
2145.11,0.0
2162.16,0.0
2179.2,0.0
2196.24,0.0
2213.28,0.0
2230.33,0.0
2247.37,0.0
2264.41,0.0
2281.45,0.0
2298.5,0.0
2315.54,0.0
2332.58,0.0
2349.62,0.0
2366.67,0.0
2383.71,0.0
2400.75,0.0
2417.79,0.0
2434.84,0.0
2451.88,0.0
2468.92,0.0
2485.96,0.0
2503.01,0.0
2520.05,0.0
2537.09,0.0
2554.14,0.0
2571.18,0.0
2588.22,0.0
2605.26,0.0
2622.31,0.0
2639.35,0.0
2656.39,0.0
2673.43,0.0
2690.48,0.0
2707.52,0.0
2724.56,0.0
2741.6,0.0
2758.65,0.0
2775.69,0.0
2792.73,0.0
2809.77,0.0
2826.82,0.0
2843.86,0.0
2860.9,0.0
2877.94,0.0
2894.99,0.0
2912.03,0.0
2929.07,0.0
2946.12,0.0
2963.16,0.0
2980.2,0.0
2997.24,0.0
3014.29,0.0
3031.33,0.0
3048.37,0.0
3065.41,0.0
3082.46,0.0
3099.5,0.0
3116.54,0.0
3133.58,0.0
3150.63,0.0
3167.67,0.0
3184.71,0.0
3201.75,0.0
3218.8,0.0
3235.84,0.0
3252.88,0.0
3269.92,0.0
3286.97,0.0
3304.01,0.0
3321.05,0.0
3338.1,0.0
3355.14,0.0
3372.18,0.0
3389.22,0.0
3406.27,0.0
3423.31,0.0
3440.35,0.0
3457.39,0.0
3474.44,0.0
3491.48,0.0
3500.0,0.0