File: __exampleData/ML Plastics copy/top class a spectra/All Class A spectra/Class_A_X127_Y49_prob0.510.csv
# Class A Classified Spectrum
# Position: X=127, Y=49
# Classification Probability: 0.5100
# Data Type: processed
# Original Filename: Steno-CT-33_01_Y049_X127.txt
#
Wavenumber,Intensity
100.0,31.1872
117.043,154.575
134.085,27.9391
151.128,21.8621
168.17,53.3106
185.213,28.5189
202.256,11.1822
219.298,7.35147
236.341,-0.336633
253.383,6.18289
270.426,8.00589
287.469,8.34356
304.511,2.66896
321.554,6.15076
338.596,-2.1609
355.639,9.38924
372.682,0.803797
389.724,9.19868
406.767,7.13729
423.81,11.6797
440.852,7.7059
457.895,12.5054
474.937,15.0798
491.98,8.06157
509.023,-1.45573
526.065,9.24345
543.108,2.57827
560.15,13.3781
577.193,8.12359
594.236,6.80372
611.278,11.3537
628.321,-1.34922
645.363,19.0383
662.406,15.0445
679.449,21.7856
696.491,24.7402
713.534,14.8194
730.576,3.78587
747.619,8.2413
764.662,14.8401
781.704,4.67089
798.747,17.4623
815.789,22.0282
832.832,12.7969
849.875,15.0933
866.917,21.6009
883.96,18.1923
901.003,17.2636
918.045,19.2487
935.088,11.9889
952.13,12.2192
969.173,10.647
986.216,13.0893
1003.26,17.7874
1020.3,92.6139
1037.34,25.958
1054.39,19.4952
1071.43,11.3951
1088.47,5.19559
1105.51,14.6105
1122.56,17.9226
1139.6,10.7378
1156.64,2.42692
1173.68,12.3254
1190.73,13.1491
1207.77,4.4704
1224.81,29.1528
1241.85,47.4443
1258.9,18.5594
1275.94,4.37311
1292.98,13.634
1310.03,3.3844
1327.07,5.89469
1344.11,5.93552
1361.15,7.1821
1378.2,5.80596
1395.24,16.8489
1412.28,19.0766
1429.32,7.77685
1446.37,14.3147
1463.41,12.1566
1480.45,9.02294
1497.49,10.8725
1514.54,12.932
1531.58,6.22673
1548.62,10.8901
1565.66,12.5892
1582.71,12.7529
1599.75,0.849428
1616.79,6.28353
1633.83,5.63183
1650.88,8.83611
1667.92,8.05315
1684.96,10.5993
1702.01,13.0558
1719.05,5.34113
1736.09,9.40919
1753.13,7.87115
1770.18,6.92522
1787.22,14.6285
1804.26,7.71433
1821.3,10.4585
1838.35,3.98805
1855.39,8.98867
1872.43,7.18965
1889.47,11.053
1906.52,10.7433
1923.56,23.5033
1940.6,24.827
1957.64,19.8732
1974.69,23.7302
1991.73,14.0381
2008.77,-1.22951
2025.81,0.0
2042.86,0.0
2059.9,0.0
2076.94,0.0
2093.98,0.0
2111.03,0.0
2128.07,0.0
2145.11,0.0
2162.16,0.0
2179.2,0.0
2196.24,0.0
2213.28,0.0
2230.33,0.0
2247.37,0.0
2264.41,0.0
2281.45,0.0
2298.5,0.0
2315.54,0.0
2332.58,0.0
2349.62,0.0
2366.67,0.0
2383.71,0.0
2400.75,0.0
2417.79,0.0
2434.84,0.0
2451.88,0.0
2468.92,0.0
2485.96,0.0
2503.01,0.0
2520.05,0.0
2537.09,0.0
2554.14,0.0
2571.18,0.0
2588.22,0.0
2605.26,0.0
2622.31,0.0
2639.35,0.0
2656.39,0.0
2673.43,0.0
2690.48,0.0
2707.52,0.0
2724.56,0.0
2741.6,0.0
2758.65,0.0
2775.69,0.0
2792.73,0.0
2809.77,0.0
2826.82,0.0
2843.86,0.0
2860.9,0.0
2877.94,0.0
2894.99,0.0
2912.03,0.0
2929.07,0.0
2946.12,0.0
2963.16,0.0
2980.2,0.0
2997.24,0.0
3014.29,0.0
3031.33,0.0
3048.37,0.0
3065.41,0.0
3082.46,0.0
3099.5,0.0
3116.54,0.0
3133.58,0.0
3150.63,0.0
3167.67,0.0
3184.71,0.0
3201.75,0.0
3218.8,0.0
3235.84,0.0
3252.88,0.0
3269.92,0.0
3286.97,0.0
3304.01,0.0
3321.05,0.0
3338.1,0.0
3355.14,0.0
3372.18,0.0
3389.22,0.0
3406.27,0.0
3423.31,0.0
3440.35,0.0
3457.39,0.0
3474.44,0.0
3491.48,0.0
3500.0,0.0