File: __exampleData/ML Plastics copy/top class a spectra/All Class A spectra/Class_A_X124_Y42_prob0.600.csv
# Class A Classified Spectrum
# Position: X=124, Y=42
# Classification Probability: 0.6000
# Data Type: processed
# Original Filename: Steno-CT-33_01_Y042_X124.txt
#
Wavenumber,Intensity
100.0,13.3308
117.043,83.4817
134.085,23.7569
151.128,33.1022
168.17,33.5179
185.213,42.211
202.256,14.9006
219.298,17.4978
236.341,14.5845
253.383,3.18018
270.426,16.5376
287.469,7.38292
304.511,4.59076
321.554,14.3343
338.596,7.89128
355.639,5.5462
372.682,5.40962
389.724,2.08669
406.767,17.292
423.81,5.5028
440.852,-1.39219
457.895,3.03908
474.937,1.93043
491.98,11.1964
509.023,7.84977
526.065,3.49218
543.108,4.45321
560.15,4.37044
577.193,15.7083
594.236,15.9347
611.278,6.21792
628.321,10.1126
645.363,7.1013
662.406,-0.0413406
679.449,10.4095
696.491,19.1102
713.534,6.18594
730.576,16.8407
747.619,3.87851
764.662,2.20701
781.704,18.9889
798.747,14.5617
815.789,15.8618
832.832,9.51529
849.875,6.13126
866.917,0.653513
883.96,4.47975
901.003,10.2786
918.045,2.50605
935.088,3.05182
952.13,7.05917
969.173,10.4841
986.216,1.18021
1003.26,19.7185
1020.3,62.1495
1037.34,18.8294
1054.39,6.99977
1071.43,8.05336
1088.47,2.47147
1105.51,10.6566
1122.56,6.42222
1139.6,14.8715
1156.64,11.4751
1173.68,4.31471
1190.73,5.3701
1207.77,16.1889
1224.81,31.9433
1241.85,59.9346
1258.9,29.9997
1275.94,10.5772
1292.98,5.23798
1310.03,10.36
1327.07,6.66036
1344.11,9.43063
1361.15,6.11652
1378.2,10.0682
1395.24,17.8799
1412.28,9.13271
1429.32,10.8919
1446.37,-1.02322
1463.41,-0.224983
1480.45,9.29645
1497.49,17.8769
1514.54,9.06957
1531.58,-0.636663
1548.62,15.4071
1565.66,5.25436
1582.71,9.7374
1599.75,10.3281
1616.79,9.77404
1633.83,16.3971
1650.88,2.28719
1667.92,3.03907
1684.96,6.71676
1702.01,12.1233
1719.05,12.4009
1736.09,7.70268
1753.13,13.3185
1770.18,4.68146
1787.22,11.4032
1804.26,9.27018
1821.3,5.65373
1838.35,5.66632
1855.39,21.0585
1872.43,16.3354
1889.47,12.1265
1906.52,13.1877
1923.56,9.85386
1940.6,3.364
1957.64,5.66555
1974.69,8.09117
1991.73,9.68427
2008.77,-1.02252
2025.81,0.0
2042.86,0.0
2059.9,0.0
2076.94,0.0
2093.98,0.0
2111.03,0.0
2128.07,0.0
2145.11,0.0
2162.16,0.0
2179.2,0.0
2196.24,0.0
2213.28,0.0
2230.33,0.0
2247.37,0.0
2264.41,0.0
2281.45,0.0
2298.5,0.0
2315.54,0.0
2332.58,0.0
2349.62,0.0
2366.67,0.0
2383.71,0.0
2400.75,0.0
2417.79,0.0
2434.84,0.0
2451.88,0.0
2468.92,0.0
2485.96,0.0
2503.01,0.0
2520.05,0.0
2537.09,0.0
2554.14,0.0
2571.18,0.0
2588.22,0.0
2605.26,0.0
2622.31,0.0
2639.35,0.0
2656.39,0.0
2673.43,0.0
2690.48,0.0
2707.52,0.0
2724.56,0.0
2741.6,0.0
2758.65,0.0
2775.69,0.0
2792.73,0.0
2809.77,0.0
2826.82,0.0
2843.86,0.0
2860.9,0.0
2877.94,0.0
2894.99,0.0
2912.03,0.0
2929.07,0.0
2946.12,0.0
2963.16,0.0
2980.2,0.0
2997.24,0.0
3014.29,0.0
3031.33,0.0
3048.37,0.0
3065.41,0.0
3082.46,0.0
3099.5,0.0
3116.54,0.0
3133.58,0.0
3150.63,0.0
3167.67,0.0
3184.71,0.0
3201.75,0.0
3218.8,0.0
3235.84,0.0
3252.88,0.0
3269.92,0.0
3286.97,0.0
3304.01,0.0
3321.05,0.0
3338.1,0.0
3355.14,0.0
3372.18,0.0
3389.22,0.0
3406.27,0.0
3423.31,0.0
3440.35,0.0
3457.39,0.0
3474.44,0.0
3491.48,0.0
3500.0,0.0