File: __exampleData/ML Plastics copy/top class a spectra/All Class A spectra/Class_A_X257_Y23_prob0.880.csv
# Class A Classified Spectrum
# Position: X=257, Y=23
# Classification Probability: 0.8800
# Data Type: processed
# Original Filename: Steno-CT-33_01_Y023_X257.txt
#
Wavenumber,Intensity
100.0,3.19294
117.043,12.3034
134.085,8.48972
151.128,18.6002
168.17,13.3219
185.213,10.3966
202.256,-0.886942
219.298,7.22897
236.341,2.94713
253.383,9.97758
270.426,13.1623
287.469,9.95451
304.511,10.9444
321.554,10.0985
338.596,18.5841
355.639,4.44116
372.682,6.58938
389.724,8.56538
406.767,6.49208
423.81,4.33099
440.852,12.3354
457.895,10.533
474.937,9.40596
491.98,7.67961
509.023,8.74816
526.065,13.8399
543.108,8.92693
560.15,19.7713
577.193,9.36126
594.236,3.68329
611.278,4.15233
628.321,3.25286
645.363,6.174
662.406,2.48929
679.449,10.2251
696.491,12.2839
713.534,11.9361
730.576,10.9941
747.619,13.4367
764.662,14.3839
781.704,5.89081
798.747,4.05915
815.789,10.5688
832.832,16.8398
849.875,265.411
866.917,926.145
883.96,-82.3416
901.003,17.7235
918.045,10.9675
935.088,6.55065
952.13,9.89131
969.173,9.59665
986.216,7.54745
1003.26,6.00832
1020.3,15.2307
1037.34,7.38896
1054.39,6.17848
1071.43,7.07762
1088.47,4.41165
1105.51,4.16405
1122.56,9.52542
1139.6,12.4332
1156.64,13.5084
1173.68,11.4955
1190.73,5.376
1207.77,13.7179
1224.81,12.5132
1241.85,9.24279
1258.9,13.0509
1275.94,2.14684
1292.98,8.56648
1310.03,5.51529
1327.07,3.54389
1344.11,14.671
1361.15,13.9181
1378.2,14.1126
1395.24,8.21012
1412.28,14.6213
1429.32,12.7213
1446.37,6.19583
1463.41,9.7079
1480.45,5.11789
1497.49,10.6029
1514.54,2.69249
1531.58,3.27242
1548.62,15.3827
1565.66,4.99524
1582.71,6.66207
1599.75,5.80664
1616.79,7.16728
1633.83,4.99836
1650.88,9.39597
1667.92,2.31647
1684.96,12.7975
1702.01,9.35139
1719.05,14.8249
1736.09,8.04246
1753.13,7.17931
1770.18,6.21308
1787.22,10.9708
1804.26,9.26462
1821.3,7.12072
1838.35,9.09128
1855.39,7.47095
1872.43,14.1418
1889.47,10.4817
1906.52,9.34944
1923.56,11.4641
1940.6,14.2872
1957.64,1.15326
1974.69,3.18635
1991.73,0.392305
2008.77,-0.0628289
2025.81,0.0
2042.86,0.0
2059.9,0.0
2076.94,0.0
2093.98,0.0
2111.03,0.0
2128.07,0.0
2145.11,0.0
2162.16,0.0
2179.2,0.0
2196.24,0.0
2213.28,0.0
2230.33,0.0
2247.37,0.0
2264.41,0.0
2281.45,0.0
2298.5,0.0
2315.54,0.0
2332.58,0.0
2349.62,0.0
2366.67,0.0
2383.71,0.0
2400.75,0.0
2417.79,0.0
2434.84,0.0
2451.88,0.0
2468.92,0.0
2485.96,0.0
2503.01,0.0
2520.05,0.0
2537.09,0.0
2554.14,0.0
2571.18,0.0
2588.22,0.0
2605.26,0.0
2622.31,0.0
2639.35,0.0
2656.39,0.0
2673.43,0.0
2690.48,0.0
2707.52,0.0
2724.56,0.0
2741.6,0.0
2758.65,0.0
2775.69,0.0
2792.73,0.0
2809.77,0.0
2826.82,0.0
2843.86,0.0
2860.9,0.0
2877.94,0.0
2894.99,0.0
2912.03,0.0
2929.07,0.0
2946.12,0.0
2963.16,0.0
2980.2,0.0
2997.24,0.0
3014.29,0.0
3031.33,0.0
3048.37,0.0
3065.41,0.0
3082.46,0.0
3099.5,0.0
3116.54,0.0
3133.58,0.0
3150.63,0.0
3167.67,0.0
3184.71,0.0
3201.75,0.0
3218.8,0.0
3235.84,0.0
3252.88,0.0
3269.92,0.0
3286.97,0.0
3304.01,0.0
3321.05,0.0
3338.1,0.0
3355.14,0.0
3372.18,0.0
3389.22,0.0
3406.27,0.0
3423.31,0.0
3440.35,0.0
3457.39,0.0
3474.44,0.0
3491.48,0.0
3500.0,0.0