File: __exampleData/ML Plastics copy/top class a spectra/Class_A_X130_Y39_prob0.550.txt
# Class A Classified Spectrum:
# Position: X=130, Y=39
# Data Type: processed
# Original Filename: Steno-CT-33_01_Y039_X130.txt
# Classification Probability: 0.5500
#
Wavenumber Intensity
100.0 13.7166
117.043 91.5076
134.085 16.5683
151.128 25.7422
168.17 30.9862
185.213 22.6867
202.256 14.269
219.298 14.2694
236.341 2.74605
253.383 4.38555
270.426 7.45663
287.469 11.6359
304.511 0.508834
321.554 8.86739
338.596 5.0978
355.639 8.24544
372.682 19.27
389.724 12.3495
406.767 0.00201973
423.81 4.56302
440.852 5.71483
457.895 9.30045
474.937 16.4284
491.98 9.76475
509.023 8.40486
526.065 6.5791
543.108 5.64652
560.15 7.49035
577.193 -0.291955
594.236 7.75697
611.278 -4.98069
628.321 1.04347
645.363 4.63977
662.406 9.97405
679.449 16.992
696.491 11.1344
713.534 9.59045
730.576 3.2125
747.619 7.61442
764.662 5.2837
781.704 10.8686
798.747 12.4216
815.789 11.6209
832.832 14.5609
849.875 17.0397
866.917 8.1061
883.96 8.94715
901.003 1.82738
918.045 2.63964
935.088 11.0675
952.13 9.34153
969.173 5.58642
986.216 9.47707
1003.26 18.9691
1020.3 51.506
1037.34 17.282
1054.39 12.2222
1071.43 18.1353
1088.47 23.4144
1105.51 10.8442
1122.56 9.0484
1139.6 9.79682
1156.64 5.64716
1173.68 4.47458
1190.73 18.6993
1207.77 14.5389
1224.81 17.6891
1241.85 21.7448
1258.9 16.5345
1275.94 3.44534
1292.98 3.58917
1310.03 5.1085
1327.07 7.88779
1344.11 6.80073
1361.15 5.06043
1378.2 5.88486
1395.24 18.0416
1412.28 15.8529
1429.32 17.0016
1446.37 9.0708
1463.41 5.04587
1480.45 12.6813
1497.49 9.69794
1514.54 1.57716
1531.58 4.14853
1548.62 10.0294
1565.66 11.7697
1582.71 14.4365
1599.75 0.32083
1616.79 4.41939
1633.83 -2.67249
1650.88 1.91859
1667.92 5.29567
1684.96 15.3773
1702.01 4.41279
1719.05 0.890383
1736.09 8.10812
1753.13 -0.214798
1770.18 9.59583
1787.22 4.90623
1804.26 11.1202
1821.3 5.92414
1838.35 6.72292
1855.39 2.39816
1872.43 8.346
1889.47 -4.44418
1906.52 9.34591
1923.56 11.1589
1940.6 21.0251
1957.64 6.17315
1974.69 6.21169
1991.73 5.67287
2008.77 -0.798569
2025.81 0.0
2042.86 0.0
2059.9 0.0
2076.94 0.0
2093.98 0.0
2111.03 0.0
2128.07 0.0
2145.11 0.0
2162.16 0.0
2179.2 0.0
2196.24 0.0
2213.28 0.0
2230.33 0.0
2247.37 0.0
2264.41 0.0
2281.45 0.0
2298.5 0.0
2315.54 0.0
2332.58 0.0
2349.62 0.0
2366.67 0.0
2383.71 0.0
2400.75 0.0
2417.79 0.0
2434.84 0.0
2451.88 0.0
2468.92 0.0
2485.96 0.0
2503.01 0.0
2520.05 0.0
2537.09 0.0
2554.14 0.0
2571.18 0.0
2588.22 0.0
2605.26 0.0
2622.31 0.0
2639.35 0.0
2656.39 0.0
2673.43 0.0
2690.48 0.0
2707.52 0.0
2724.56 0.0
2741.6 0.0
2758.65 0.0
2775.69 0.0
2792.73 0.0
2809.77 0.0
2826.82 0.0
2843.86 0.0
2860.9 0.0
2877.94 0.0
2894.99 0.0
2912.03 0.0
2929.07 0.0
2946.12 0.0
2963.16 0.0
2980.2 0.0
2997.24 0.0
3014.29 0.0
3031.33 0.0
3048.37 0.0
3065.41 0.0
3082.46 0.0
3099.5 0.0
3116.54 0.0
3133.58 0.0
3150.63 0.0
3167.67 0.0
3184.71 0.0
3201.75 0.0
3218.8 0.0
3235.84 0.0
3252.88 0.0
3269.92 0.0
3286.97 0.0
3304.01 0.0
3321.05 0.0
3338.1 0.0
3355.14 0.0
3372.18 0.0
3389.22 0.0
3406.27 0.0
3423.31 0.0
3440.35 0.0
3457.39 0.0
3474.44 0.0
3491.48 0.0
3500.0 0.0