File: __exampleData/ML Plastics copy/top class a spectra/Class_A_Top_07_X123_Y46_prob0.570.csv
# Class A Spectrum - Top 7
# Position: X=123, Y=46
# Classification Probability: 0.5700
# Data Type: processed
# Original Filename: Steno-CT-33_01_Y046_X123.txt
#
Wavenumber,Intensity
100.0,11.7911
117.043,42.1494
134.085,17.7513
151.128,9.17618
168.17,33.5046
185.213,21.179
202.256,5.22716
219.298,3.29587
236.341,3.74785
253.383,0.367206
270.426,13.7315
287.469,2.51698
304.511,16.9894
321.554,8.26259
338.596,1.23408
355.639,6.34056
372.682,7.72705
389.724,3.30952
406.767,1.7658
423.81,-3.56418
440.852,5.2756
457.895,1.3157
474.937,16.9677
491.98,12.1305
509.023,11.6723
526.065,11.9536
543.108,-1.43064
560.15,4.01545
577.193,10.3005
594.236,6.20326
611.278,14.7055
628.321,9.4046
645.363,27.9218
662.406,9.43019
679.449,23.5717
696.491,40.3609
713.534,12.8204
730.576,10.711
747.619,14.2458
764.662,20.4881
781.704,11.8351
798.747,12.7872
815.789,17.5842
832.832,24.62
849.875,23.864
866.917,9.47482
883.96,15.7252
901.003,15.925
918.045,4.00513
935.088,4.25186
952.13,10.3777
969.173,3.10653
986.216,19.0094
1003.26,29.2405
1020.3,67.3752
1037.34,26.1461
1054.39,27.1821
1071.43,15.28
1088.47,23.5161
1105.51,11.0802
1122.56,12.4046
1139.6,8.79005
1156.64,4.25885
1173.68,3.50227
1190.73,22.8591
1207.77,23.4745
1224.81,29.1165
1241.85,55.5882
1258.9,31.3818
1275.94,11.4307
1292.98,5.55455
1310.03,6.94778
1327.07,8.308
1344.11,8.63258
1361.15,10.1531
1378.2,15.8499
1395.24,15.1126
1412.28,11.9293
1429.32,8.90128
1446.37,5.70153
1463.41,1.54204
1480.45,5.62449
1497.49,3.35664
1514.54,7.43441
1531.58,7.95147
1548.62,1.90858
1565.66,-3.23372
1582.71,6.83107
1599.75,9.14126
1616.79,8.82742
1633.83,9.73376
1650.88,8.97365
1667.92,6.03473
1684.96,12.5769
1702.01,4.64867
1719.05,1.81807
1736.09,8.96901
1753.13,10.9209
1770.18,8.28807
1787.22,13.5617
1804.26,6.69852
1821.3,1.30757
1838.35,12.5115
1855.39,11.1879
1872.43,11.5121
1889.47,15.4097
1906.52,19.332
1923.56,20.3183
1940.6,16.3377
1957.64,24.9605
1974.69,20.3907
1991.73,11.2651
2008.77,-0.625994
2025.81,0.0
2042.86,0.0
2059.9,0.0
2076.94,0.0
2093.98,0.0
2111.03,0.0
2128.07,0.0
2145.11,0.0
2162.16,0.0
2179.2,0.0
2196.24,0.0
2213.28,0.0
2230.33,0.0
2247.37,0.0
2264.41,0.0
2281.45,0.0
2298.5,0.0
2315.54,0.0
2332.58,0.0
2349.62,0.0
2366.67,0.0
2383.71,0.0
2400.75,0.0
2417.79,0.0
2434.84,0.0
2451.88,0.0
2468.92,0.0
2485.96,0.0
2503.01,0.0
2520.05,0.0
2537.09,0.0
2554.14,0.0
2571.18,0.0
2588.22,0.0
2605.26,0.0
2622.31,0.0
2639.35,0.0
2656.39,0.0
2673.43,0.0
2690.48,0.0
2707.52,0.0
2724.56,0.0
2741.6,0.0
2758.65,0.0
2775.69,0.0
2792.73,0.0
2809.77,0.0
2826.82,0.0
2843.86,0.0
2860.9,0.0
2877.94,0.0
2894.99,0.0
2912.03,0.0
2929.07,0.0
2946.12,0.0
2963.16,0.0
2980.2,0.0
2997.24,0.0
3014.29,0.0
3031.33,0.0
3048.37,0.0
3065.41,0.0
3082.46,0.0
3099.5,0.0
3116.54,0.0
3133.58,0.0
3150.63,0.0
3167.67,0.0
3184.71,0.0
3201.75,0.0
3218.8,0.0
3235.84,0.0
3252.88,0.0
3269.92,0.0
3286.97,0.0
3304.01,0.0
3321.05,0.0
3338.1,0.0
3355.14,0.0
3372.18,0.0
3389.22,0.0
3406.27,0.0
3423.31,0.0
3440.35,0.0
3457.39,0.0
3474.44,0.0
3491.48,0.0
3500.0,0.0