File: __exampleData/ML Plastics copy/top class a spectra/Class_A_X127_Y53_prob0.570.txt
# Class A Classified Spectrum:
# Position: X=127, Y=53
# Data Type: processed
# Original Filename: Steno-CT-33_01_Y053_X127.txt
# Classification Probability: 0.5700
#
Wavenumber Intensity
100.0 14.837
117.043 75.3817
134.085 35.7151
151.128 36.0065
168.17 46.8365
185.213 30.4238
202.256 11.3143
219.298 13.1089
236.341 12.9961
253.383 12.6821
270.426 -0.0218265
287.469 18.8085
304.511 8.02977
321.554 18.2012
338.596 9.49118
355.639 13.3622
372.682 6.83812
389.724 13.3906
406.767 10.0199
423.81 2.46312
440.852 6.15991
457.895 7.35781
474.937 10.7958
491.98 6.94952
509.023 14.6714
526.065 3.16617
543.108 5.83347
560.15 11.6413
577.193 4.87028
594.236 8.4865
611.278 8.87214
628.321 11.736
645.363 6.10135
662.406 10.6777
679.449 19.386
696.491 15.0834
713.534 9.59143
730.576 5.06677
747.619 8.83026
764.662 9.00975
781.704 10.8468
798.747 10.4014
815.789 16.9413
832.832 15.9906
849.875 17.4697
866.917 20.6962
883.96 14.1694
901.003 -2.55275
918.045 0.907989
935.088 10.7584
952.13 12.3179
969.173 10.2313
986.216 10.5405
1003.26 14.7785
1020.3 49.2997
1037.34 8.2793
1054.39 16.8028
1071.43 20.2821
1088.47 13.3069
1105.51 19.2773
1122.56 3.35191
1139.6 9.07558
1156.64 2.42028
1173.68 0.548322
1190.73 9.4263
1207.77 14.449
1224.81 28.1097
1241.85 43.0049
1258.9 17.461
1275.94 11.5278
1292.98 21.0293
1310.03 13.2695
1327.07 7.6057
1344.11 13.0678
1361.15 15.4708
1378.2 10.5355
1395.24 9.18714
1412.28 7.91296
1429.32 9.79457
1446.37 14.5801
1463.41 11.9867
1480.45 10.0288
1497.49 9.64771
1514.54 11.1324
1531.58 10.8259
1548.62 4.82723
1565.66 0.202454
1582.71 12.9595
1599.75 9.86163
1616.79 7.13721
1633.83 13.4695
1650.88 -3.54415
1667.92 3.22436
1684.96 7.73498
1702.01 15.8075
1719.05 9.51323
1736.09 2.85528
1753.13 3.4606
1770.18 4.05039
1787.22 2.1645
1804.26 3.45775
1821.3 9.61775
1838.35 0.115963
1855.39 17.8812
1872.43 11.8159
1889.47 12.0714
1906.52 14.1575
1923.56 16.5111
1940.6 11.4003
1957.64 7.30937
1974.69 11.2885
1991.73 1.50057
2008.77 -1.07514
2025.81 0.0
2042.86 0.0
2059.9 0.0
2076.94 0.0
2093.98 0.0
2111.03 0.0
2128.07 0.0
2145.11 0.0
2162.16 0.0
2179.2 0.0
2196.24 0.0
2213.28 0.0
2230.33 0.0
2247.37 0.0
2264.41 0.0
2281.45 0.0
2298.5 0.0
2315.54 0.0
2332.58 0.0
2349.62 0.0
2366.67 0.0
2383.71 0.0
2400.75 0.0
2417.79 0.0
2434.84 0.0
2451.88 0.0
2468.92 0.0
2485.96 0.0
2503.01 0.0
2520.05 0.0
2537.09 0.0
2554.14 0.0
2571.18 0.0
2588.22 0.0
2605.26 0.0
2622.31 0.0
2639.35 0.0
2656.39 0.0
2673.43 0.0
2690.48 0.0
2707.52 0.0
2724.56 0.0
2741.6 0.0
2758.65 0.0
2775.69 0.0
2792.73 0.0
2809.77 0.0
2826.82 0.0
2843.86 0.0
2860.9 0.0
2877.94 0.0
2894.99 0.0
2912.03 0.0
2929.07 0.0
2946.12 0.0
2963.16 0.0
2980.2 0.0
2997.24 0.0
3014.29 0.0
3031.33 0.0
3048.37 0.0
3065.41 0.0
3082.46 0.0
3099.5 0.0
3116.54 0.0
3133.58 0.0
3150.63 0.0
3167.67 0.0
3184.71 0.0
3201.75 0.0
3218.8 0.0
3235.84 0.0
3252.88 0.0
3269.92 0.0
3286.97 0.0
3304.01 0.0
3321.05 0.0
3338.1 0.0
3355.14 0.0
3372.18 0.0
3389.22 0.0
3406.27 0.0
3423.31 0.0
3440.35 0.0
3457.39 0.0
3474.44 0.0
3491.48 0.0
3500.0 0.0