File: __exampleData/ML Plastics copy/top class a spectra/Class_A_Top_01_X93_Y31_prob0.900.txt
# Class A Spectrum - Top: 1
# Position: X=93, Y=31
# Classification Probability: 0.9000
# Data Type: processed
# Original Filename: Steno-CT-33_01_Y031_X093.txt
#
Wavenumber Intensity
100.0 -0.216313
117.043 17.2035
134.085 3.40646
151.128 4.60103
168.17 7.0497
185.213 6.32398
202.256 2.78992
219.298 4.89454
236.341 15.1191
253.383 15.7442
270.426 6.9973
287.469 8.27419
304.511 14.679
321.554 14.3479
338.596 11.8332
355.639 8.44328
372.682 11.2372
389.724 20.6532
406.767 8.8988
423.81 9.49438
440.852 12.8902
457.895 4.45229
474.937 15.847
491.98 12.1183
509.023 8.0398
526.065 15.8239
543.108 7.28577
560.15 12.6891
577.193 15.2867
594.236 2.91929
611.278 9.76731
628.321 6.56837
645.363 4.51525
662.406 7.29947
679.449 11.5844
696.491 9.8391
713.534 15.5025
730.576 5.13054
747.619 12.5413
764.662 17.4341
781.704 13.101
798.747 8.44363
815.789 19.404
832.832 11.4253
849.875 17.3184
866.917 18.5133
883.96 15.2816
901.003 13.064
918.045 12.8222
935.088 4.48189
952.13 13.2182
969.173 11.6685
986.216 9.39907
1003.26 10.1005
1020.3 13.2348
1037.34 14.4264
1054.39 20.5659
1071.43 15.5693
1088.47 11.7738
1105.51 1.69644
1122.56 4.71354
1139.6 13.8778
1156.64 7.04821
1173.68 15.0603
1190.73 11.6335
1207.77 8.13217
1224.81 13.0413
1241.85 14.8905
1258.9 -6.30649
1275.94 6.89433
1292.98 13.9917
1310.03 -98.0783
1327.07 1317.8
1344.11 585.187
1361.15 13.1965
1378.2 14.3568
1395.24 10.284
1412.28 4.76854
1429.32 12.9554
1446.37 6.73661
1463.41 13.8021
1480.45 2.74735
1497.49 5.99203
1514.54 8.76672
1531.58 7.42924
1548.62 11.4431
1565.66 6.66131
1582.71 6.43766
1599.75 6.57194
1616.79 12.2914
1633.83 10.546
1650.88 7.97904
1667.92 12.1682
1684.96 4.21918
1702.01 10.3623
1719.05 10.6418
1736.09 11.7473
1753.13 14.5721
1770.18 9.32028
1787.22 9.6971
1804.26 5.45734
1821.3 1.73211
1838.35 4.64109
1855.39 8.269
1872.43 9.6778
1889.47 5.83359
1906.52 10.557
1923.56 7.33218
1940.6 0.814625
1957.64 4.89108
1974.69 5.90461
1991.73 7.73305
2008.77 -0.515941
2025.81 0.0
2042.86 0.0
2059.9 0.0
2076.94 0.0
2093.98 0.0
2111.03 0.0
2128.07 0.0
2145.11 0.0
2162.16 0.0
2179.2 0.0
2196.24 0.0
2213.28 0.0
2230.33 0.0
2247.37 0.0
2264.41 0.0
2281.45 0.0
2298.5 0.0
2315.54 0.0
2332.58 0.0
2349.62 0.0
2366.67 0.0
2383.71 0.0
2400.75 0.0
2417.79 0.0
2434.84 0.0
2451.88 0.0
2468.92 0.0
2485.96 0.0
2503.01 0.0
2520.05 0.0
2537.09 0.0
2554.14 0.0
2571.18 0.0
2588.22 0.0
2605.26 0.0
2622.31 0.0
2639.35 0.0
2656.39 0.0
2673.43 0.0
2690.48 0.0
2707.52 0.0
2724.56 0.0
2741.6 0.0
2758.65 0.0
2775.69 0.0
2792.73 0.0
2809.77 0.0
2826.82 0.0
2843.86 0.0
2860.9 0.0
2877.94 0.0
2894.99 0.0
2912.03 0.0
2929.07 0.0
2946.12 0.0
2963.16 0.0
2980.2 0.0
2997.24 0.0
3014.29 0.0
3031.33 0.0
3048.37 0.0
3065.41 0.0
3082.46 0.0
3099.5 0.0
3116.54 0.0
3133.58 0.0
3150.63 0.0
3167.67 0.0
3184.71 0.0
3201.75 0.0
3218.8 0.0
3235.84 0.0
3252.88 0.0
3269.92 0.0
3286.97 0.0
3304.01 0.0
3321.05 0.0
3338.1 0.0
3355.14 0.0
3372.18 0.0
3389.22 0.0
3406.27 0.0
3423.31 0.0
3440.35 0.0
3457.39 0.0
3474.44 0.0
3491.48 0.0
3500.0 0.0