File: __exampleData/ML Plastics copy/top class a spectra/Class_A_Top_10_X52_Y38_prob0.540.csv
# Class A Spectrum - Top 10
# Position: X=52, Y=38
# Classification Probability: 0.5400
# Data Type: processed
# Original Filename: Steno-CT-33_01_Y038_X052.txt
#
Wavenumber,Intensity
100.0,1.58204
117.043,11.9128
134.085,12.0531
151.128,2.71943
168.17,16.4335
185.213,9.97191
202.256,7.76787
219.298,12.7714
236.341,8.85748
253.383,3.34391
270.426,3.88274
287.469,10.3999
304.511,8.64241
321.554,12.1303
338.596,11.5393
355.639,11.4016
372.682,6.34416
389.724,6.62106
406.767,-0.0278052
423.81,8.42177
440.852,17.3058
457.895,1.62104
474.937,12.5142
491.98,3.6994
509.023,13.4902
526.065,6.97741
543.108,9.85282
560.15,11.9248
577.193,6.31387
594.236,0.47835
611.278,7.87395
628.321,5.24938
645.363,5.18942
662.406,16.916
679.449,9.44308
696.491,13.1429
713.534,16.6092
730.576,6.84993
747.619,14.0152
764.662,17.1572
781.704,4.62349
798.747,11.1269
815.789,9.44237
832.832,11.4329
849.875,15.8024
866.917,9.01152
883.96,8.9476
901.003,6.67036
918.045,8.53819
935.088,6.88468
952.13,13.5484
969.173,14.7707
986.216,9.95009
1003.26,11.7792
1020.3,11.8949
1037.34,11.862
1054.39,13.013
1071.43,14.942
1088.47,8.5404
1105.51,9.69254
1122.56,12.1662
1139.6,11.8354
1156.64,9.56249
1173.68,11.3015
1190.73,12.5562
1207.77,15.1825
1224.81,5.28365
1241.85,3.25178
1258.9,17.0186
1275.94,9.38054
1292.98,10.6197
1310.03,4.28347
1327.07,10.7303
1344.11,-9.03869
1361.15,694.815
1378.2,8504.51
1395.24,2166.4
1412.28,-23.0322
1429.32,1.41823
1446.37,5.72963
1463.41,2.82847
1480.45,11.2808
1497.49,3.25984
1514.54,6.82909
1531.58,5.12096
1548.62,13.3507
1565.66,-2.82208
1582.71,12.8273
1599.75,4.96166
1616.79,13.0596
1633.83,7.91554
1650.88,13.5194
1667.92,8.76489
1684.96,5.01665
1702.01,14.0377
1719.05,12.1083
1736.09,10.6133
1753.13,10.5912
1770.18,17.5229
1787.22,6.47685
1804.26,6.97442
1821.3,2.06479
1838.35,8.51722
1855.39,6.37367
1872.43,13.2606
1889.47,14.5574
1906.52,14.5942
1923.56,12.0248
1940.6,5.93769
1957.64,9.45307
1974.69,14.9982
1991.73,10.2602
2008.77,-1.58302
2025.81,0.0
2042.86,0.0
2059.9,0.0
2076.94,0.0
2093.98,0.0
2111.03,0.0
2128.07,0.0
2145.11,0.0
2162.16,0.0
2179.2,0.0
2196.24,0.0
2213.28,0.0
2230.33,0.0
2247.37,0.0
2264.41,0.0
2281.45,0.0
2298.5,0.0
2315.54,0.0
2332.58,0.0
2349.62,0.0
2366.67,0.0
2383.71,0.0
2400.75,0.0
2417.79,0.0
2434.84,0.0
2451.88,0.0
2468.92,0.0
2485.96,0.0
2503.01,0.0
2520.05,0.0
2537.09,0.0
2554.14,0.0
2571.18,0.0
2588.22,0.0
2605.26,0.0
2622.31,0.0
2639.35,0.0
2656.39,0.0
2673.43,0.0
2690.48,0.0
2707.52,0.0
2724.56,0.0
2741.6,0.0
2758.65,0.0
2775.69,0.0
2792.73,0.0
2809.77,0.0
2826.82,0.0
2843.86,0.0
2860.9,0.0
2877.94,0.0
2894.99,0.0
2912.03,0.0
2929.07,0.0
2946.12,0.0
2963.16,0.0
2980.2,0.0
2997.24,0.0
3014.29,0.0
3031.33,0.0
3048.37,0.0
3065.41,0.0
3082.46,0.0
3099.5,0.0
3116.54,0.0
3133.58,0.0
3150.63,0.0
3167.67,0.0
3184.71,0.0
3201.75,0.0
3218.8,0.0
3235.84,0.0
3252.88,0.0
3269.92,0.0
3286.97,0.0
3304.01,0.0
3321.05,0.0
3338.1,0.0
3355.14,0.0
3372.18,0.0
3389.22,0.0
3406.27,0.0
3423.31,0.0
3440.35,0.0
3457.39,0.0
3474.44,0.0
3491.48,0.0
3500.0,0.0