File: __exampleData/ML Plastics copy/top class a spectra/Class_A_Top_04_X116_Y32_prob0.650.txt
# Class A Spectrum - Top: 4
# Position: X=116, Y=32
# Classification Probability: 0.6500
# Data Type: processed
# Original Filename: Steno-CT-33_01_Y032_X116.txt
#
Wavenumber Intensity
100.0 1.12198
117.043 15.9493
134.085 10.8084
151.128 13.9341
168.17 10.6899
185.213 9.67545
202.256 5.75861
219.298 4.20402
236.341 2.4966
253.383 2.91378
270.426 10.8459
287.469 15.9332
304.511 13.8691
321.554 -0.71506
338.596 11.4395
355.639 5.55661
372.682 14.9459
389.724 5.77815
406.767 6.98785
423.81 5.91868
440.852 7.59281
457.895 6.86367
474.937 7.23126
491.98 10.3611
509.023 9.42331
526.065 10.5456
543.108 3.00325
560.15 3.73519
577.193 9.76673
594.236 3.32032
611.278 7.36202
628.321 1.78773
645.363 1.14999
662.406 4.36581
679.449 4.93838
696.491 13.9919
713.534 1.29027
730.576 16.4841
747.619 7.25627
764.662 5.98985
781.704 8.74392
798.747 14.9838
815.789 17.5284
832.832 17.0761
849.875 15.5028
866.917 15.6232
883.96 14.4434
901.003 17.2915
918.045 8.88378
935.088 10.1208
952.13 15.7706
969.173 17.3508
986.216 9.27455
1003.26 7.47912
1020.3 6.96955
1037.34 9.1841
1054.39 18.0511
1071.43 7.12485
1088.47 6.81277
1105.51 8.65304
1122.56 11.294
1139.6 8.54633
1156.64 5.45883
1173.68 6.08965
1190.73 12.1801
1207.77 1.19801
1224.81 8.2175
1241.85 4.91637
1258.9 15.4907
1275.94 7.42437
1292.98 10.9549
1310.03 4.3089
1327.07 10.8104
1344.11 5.22387
1361.15 15.1172
1378.2 16.5456
1395.24 4.59764
1412.28 7.6035
1429.32 13.5728
1446.37 13.2044
1463.41 11.6899
1480.45 -118.582
1497.49 1444.88
1514.54 2075.93
1531.58 61.5964
1548.62 5.74418
1565.66 21.3866
1582.71 8.28337
1599.75 4.93714
1616.79 4.24154
1633.83 15.6113
1650.88 10.5423
1667.92 12.8972
1684.96 13.5759
1702.01 11.2222
1719.05 7.46487
1736.09 10.4079
1753.13 2.56528
1770.18 9.32411
1787.22 11.6358
1804.26 2.6548
1821.3 13.8286
1838.35 15.6569
1855.39 13.8224
1872.43 9.02545
1889.47 10.0362
1906.52 6.2545
1923.56 3.65803
1940.6 7.67381
1957.64 9.07942
1974.69 10.9889
1991.73 8.01845
2008.77 -0.93843
2025.81 0.0
2042.86 0.0
2059.9 0.0
2076.94 0.0
2093.98 0.0
2111.03 0.0
2128.07 0.0
2145.11 0.0
2162.16 0.0
2179.2 0.0
2196.24 0.0
2213.28 0.0
2230.33 0.0
2247.37 0.0
2264.41 0.0
2281.45 0.0
2298.5 0.0
2315.54 0.0
2332.58 0.0
2349.62 0.0
2366.67 0.0
2383.71 0.0
2400.75 0.0
2417.79 0.0
2434.84 0.0
2451.88 0.0
2468.92 0.0
2485.96 0.0
2503.01 0.0
2520.05 0.0
2537.09 0.0
2554.14 0.0
2571.18 0.0
2588.22 0.0
2605.26 0.0
2622.31 0.0
2639.35 0.0
2656.39 0.0
2673.43 0.0
2690.48 0.0
2707.52 0.0
2724.56 0.0
2741.6 0.0
2758.65 0.0
2775.69 0.0
2792.73 0.0
2809.77 0.0
2826.82 0.0
2843.86 0.0
2860.9 0.0
2877.94 0.0
2894.99 0.0
2912.03 0.0
2929.07 0.0
2946.12 0.0
2963.16 0.0
2980.2 0.0
2997.24 0.0
3014.29 0.0
3031.33 0.0
3048.37 0.0
3065.41 0.0
3082.46 0.0
3099.5 0.0
3116.54 0.0
3133.58 0.0
3150.63 0.0
3167.67 0.0
3184.71 0.0
3201.75 0.0
3218.8 0.0
3235.84 0.0
3252.88 0.0
3269.92 0.0
3286.97 0.0
3304.01 0.0
3321.05 0.0
3338.1 0.0
3355.14 0.0
3372.18 0.0
3389.22 0.0
3406.27 0.0
3423.31 0.0
3440.35 0.0
3457.39 0.0
3474.44 0.0
3491.48 0.0
3500.0 0.0