File: __exampleData/ML Plastics copy/top class a spectra/Class_A_Top_06_X123_Y45_prob0.600.csv
# Class A Spectrum - Top 6
# Position: X=123, Y=45
# Classification Probability: 0.6000
# Data Type: processed
# Original Filename: Steno-CT-33_01_Y045_X123.txt
#
Wavenumber,Intensity
100.0,18.9062
117.043,150.147
134.085,35.6041
151.128,29.1233
168.17,65.752
185.213,47.1889
202.256,13.0416
219.298,7.24417
236.341,7.44703
253.383,10.075
270.426,4.10327
287.469,9.20515
304.511,11.5654
321.554,7.27266
338.596,2.98192
355.639,5.86576
372.682,0.137989
389.724,3.79526
406.767,1.03895
423.81,5.0318
440.852,11.4713
457.895,9.27496
474.937,12.694
491.98,11.6169
509.023,9.83157
526.065,7.78215
543.108,8.63139
560.15,12.5376
577.193,1.10484
594.236,-1.53653
611.278,5.6907
628.321,10.7599
645.363,10.4904
662.406,14.033
679.449,19.7178
696.491,17.6208
713.534,11.7909
730.576,11.3976
747.619,11.315
764.662,12.0856
781.704,9.10266
798.747,4.73162
815.789,13.5824
832.832,11.6521
849.875,8.88449
866.917,13.5398
883.96,21.1608
901.003,9.93427
918.045,3.11007
935.088,2.21612
952.13,10.3978
969.173,7.9079
986.216,14.3477
1003.26,8.38766
1020.3,89.7714
1037.34,33.0589
1054.39,15.6093
1071.43,10.0744
1088.47,21.6353
1105.51,13.8953
1122.56,9.57844
1139.6,7.64173
1156.64,9.464
1173.68,9.95651
1190.73,16.1354
1207.77,6.64295
1224.81,35.9198
1241.85,59.0913
1258.9,26.2107
1275.94,9.83158
1292.98,11.7454
1310.03,8.24939
1327.07,7.08427
1344.11,16.3419
1361.15,3.71703
1378.2,10.502
1395.24,10.2704
1412.28,11.0273
1429.32,6.00733
1446.37,8.74504
1463.41,7.35935
1480.45,2.80943
1497.49,5.59102
1514.54,6.57534
1531.58,7.70474
1548.62,11.6972
1565.66,4.99217
1582.71,9.6498
1599.75,9.09506
1616.79,6.50137
1633.83,-2.38146
1650.88,7.07953
1667.92,7.39274
1684.96,14.6142
1702.01,5.92533
1719.05,15.6274
1736.09,5.30687
1753.13,3.46737
1770.18,6.29263
1787.22,5.17071
1804.26,-2.68371
1821.3,4.94134
1838.35,10.4097
1855.39,12.3226
1872.43,16.1334
1889.47,5.60131
1906.52,14.128
1923.56,11.2055
1940.6,7.9712
1957.64,5.68314
1974.69,5.74399
1991.73,4.79159
2008.77,-1.00522
2025.81,0.0
2042.86,0.0
2059.9,0.0
2076.94,0.0
2093.98,0.0
2111.03,0.0
2128.07,0.0
2145.11,0.0
2162.16,0.0
2179.2,0.0
2196.24,0.0
2213.28,0.0
2230.33,0.0
2247.37,0.0
2264.41,0.0
2281.45,0.0
2298.5,0.0
2315.54,0.0
2332.58,0.0
2349.62,0.0
2366.67,0.0
2383.71,0.0
2400.75,0.0
2417.79,0.0
2434.84,0.0
2451.88,0.0
2468.92,0.0
2485.96,0.0
2503.01,0.0
2520.05,0.0
2537.09,0.0
2554.14,0.0
2571.18,0.0
2588.22,0.0
2605.26,0.0
2622.31,0.0
2639.35,0.0
2656.39,0.0
2673.43,0.0
2690.48,0.0
2707.52,0.0
2724.56,0.0
2741.6,0.0
2758.65,0.0
2775.69,0.0
2792.73,0.0
2809.77,0.0
2826.82,0.0
2843.86,0.0
2860.9,0.0
2877.94,0.0
2894.99,0.0
2912.03,0.0
2929.07,0.0
2946.12,0.0
2963.16,0.0
2980.2,0.0
2997.24,0.0
3014.29,0.0
3031.33,0.0
3048.37,0.0
3065.41,0.0
3082.46,0.0
3099.5,0.0
3116.54,0.0
3133.58,0.0
3150.63,0.0
3167.67,0.0
3184.71,0.0
3201.75,0.0
3218.8,0.0
3235.84,0.0
3252.88,0.0
3269.92,0.0
3286.97,0.0
3304.01,0.0
3321.05,0.0
3338.1,0.0
3355.14,0.0
3372.18,0.0
3389.22,0.0
3406.27,0.0
3423.31,0.0
3440.35,0.0
3457.39,0.0
3474.44,0.0
3491.48,0.0
3500.0,0.0